Day of Year (dec)	Total Rate[Hz]	M1 Total Rate[Hz]	M1-Vertical Rate[Hz]	M1-Inclined[Hz]
319.009328700000	135.895	63.425	34.893	28.532	
319.016273150000	136.797	64.165	35.067	29.098	
319.023217590000	136.142	63.442	35.033	28.408	
319.030162040000	136.657	63.627	34.810	28.817	
319.037106480000	136.957	63.557	35.095	28.462	
319.044050930000	136.552	63.567	35.062	28.505	
319.050995370000	136.485	63.967	34.680	29.287	
319.057939810000	136.813	63.235	35.080	28.155	
319.064884260000	136.973	63.853	34.848	29.005	
319.071828700000	134.963	63.960	35.250	28.710	
319.078773150000	135.555	64.413	35.455	28.958	
319.085717590000	135.485	64.443	35.443	29.000	
319.092662040000	137.230	64.250	35.140	29.110	
319.099606480000	136.675	64.077	35.175	28.902	
319.106550930000	136.227	63.982	35.122	28.860	
319.113495370000	137.145	63.593	35.117	28.477	
319.120439810000	137.048	63.785	35.103	28.682	
319.127395830000	89.469	41.985	23.151	18.834	
319.134340280000	136.428	64.952	35.722	29.230	
319.141284720000	136.843	64.158	35.293	28.865	
319.148229170000	136.532	63.507	34.930	28.577	
319.155173610000	136.387	64.437	35.528	28.908	
319.162118060000	136.148	64.298	35.243	29.055	
319.169062500000	136.178	64.047	34.907	29.140	
319.176006940000	136.552	64.113	35.347	28.767	
319.182951390000	136.200	64.042	35.093	28.948	
319.189895830000	136.980	65.193	36.060	29.133	
319.196840280000	136.727	64.525	35.283	29.242	
319.203784720000	135.985	63.973	35.300	28.673	
319.210729170000	136.212	64.257	35.685	28.572	
319.217673610000	136.115	64.828	35.633	29.195	
319.224618060000	137.073	64.908	35.842	29.067	
319.231562500000	135.800	63.922	35.177	28.745	
319.238506940000	136.488	64.738	35.858	28.880	
319.245451390000	136.977	64.443	35.210	29.233	
319.252395830000	90.427	42.708	23.513	19.195	
319.259340280000	135.983	63.933	35.047	28.887	
319.266284720000	135.892	64.305	35.602	28.703	
319.273229170000	136.660	64.725	35.742	28.983	
319.280173610000	137.552	64.322	35.378	28.943	
319.287118060000	136.885	64.205	35.527	28.678	
319.294062500000	136.492	63.952	35.037	28.915	
319.301006940000	136.707	64.008	35.575	28.433	
319.307951390000	136.805	64.860	35.627	29.233	
319.314895830000	137.495	64.340	35.532	28.808	
319.321840280000	136.988	64.615	35.605	29.010	
319.328784720000	137.198	64.102	35.142	28.960	
319.335729170000	137.247	64.383	35.280	29.103	
319.342673610000	137.352	64.865	35.430	29.435	
319.349618060000	137.133	64.587	35.500	29.087	
319.356562500000	137.713	64.792	35.450	29.342	
319.363506940000	137.028	65.585	35.795	29.790	
319.370451390000	136.787	64.348	35.587	28.762	
319.377395830000	90.852	42.383	23.533	18.850	
319.384340280000	136.417	64.787	35.382	29.405	
319.391284720000	137.440	65.293	35.912	29.382	
319.398229170000	136.112	64.218	35.280	28.938	
319.405173610000	137.515	65.103	35.880	29.223	
319.412118060000	137.395	65.515	35.948	29.567	
319.419062500000	147.933	64.192	35.305	28.887	
319.426006940000	136.402	64.633	35.613	29.020	
319.432951390000	138.368	65.370	35.953	29.417	
319.439895830000	137.367	64.400	35.440	28.960	
319.446840280000	136.727	63.740	35.155	28.585	
319.453784720000	137.970	64.747	35.200	29.547	
319.460729170000	137.083	64.598	35.570	29.028	
319.467673610000	136.577	65.097	35.863	29.233	
319.474618060000	137.103	65.408	35.980	29.428	
319.481562500000	136.877	64.790	35.888	28.902	
319.488506940000	137.213	65.180	35.850	29.330	
319.495451390000	136.728	64.582	35.413	29.168	
319.502395830000	90.907	42.828	23.410	19.418	
319.509340280000	137.147	65.318	36.117	29.202	
319.516284720000	136.713	64.128	35.522	28.607	
319.523229170000	159.245	63.480	34.882	28.598	
319.530173610000	141.423	64.405	35.838	28.567	
319.537118060000	136.687	64.455	35.143	29.312	
319.544062500000	136.625	64.760	35.927	28.833	
319.551006940000	137.528	65.245	35.730	29.515	
319.557951390000	135.820	64.678	35.453	29.225	
319.564895830000	136.223	65.573	35.883	29.690	
319.571840280000	136.260	65.255	35.507	29.748	
319.578784720000	136.592	65.177	35.863	29.313	
319.585729170000	137.392	65.668	36.138	29.530	
319.592673610000	136.188	65.598	35.887	29.712	
319.599618060000	135.413	65.275	35.748	29.527	
319.606562500000	135.063	65.662	35.870	29.792	
319.613506940000	135.693	65.528	35.805	29.723	
319.620451390000	136.387	66.392	36.345	30.047	
319.627395830000	90.363	43.652	23.923	19.728	
319.634340280000	137.568	67.040	36.788	30.252	
319.641284720000	136.272	65.992	36.218	29.773	
319.648229170000	136.395	65.237	35.727	29.510	
319.655173610000	135.783	65.360	36.012	29.348	
319.662118060000	135.130	65.190	35.673	29.517	
319.669062500000	134.877	65.288	35.795	29.493	
319.676006940000	137.030	66.547	36.495	30.052	
319.682951390000	135.380	65.393	35.905	29.488	
319.689895830000	136.283	66.153	36.147	30.007	
319.696840280000	135.572	65.453	35.863	29.590	
319.703784720000	135.557	65.613	35.877	29.737	
319.710729170000	135.922	65.547	36.115	29.432	
319.717673610000	137.052	66.453	36.557	29.897	
319.724618060000	136.297	65.662	35.763	29.898	
319.731562500000	136.378	66.122	36.353	29.768	
319.738506940000	135.388	65.155	35.802	29.353	
319.745451390000	136.070	66.172	36.387	29.785	
319.752407410000	89.498	43.118	23.453	19.666	
319.759351850000	135.722	66.313	36.107	30.207	
319.766296300000	135.753	66.043	35.883	30.160	
319.773240740000	135.170	65.995	36.307	29.688	
319.780185190000	135.157	65.823	36.048	29.775	
319.787129630000	134.855	65.882	36.190	29.692	
319.794074070000	134.942	65.708	36.087	29.622	
319.801006940000	134.457	65.781	36.072	29.710	
319.807951390000	134.583	65.617	35.963	29.653	
319.814895830000	134.952	65.928	36.053	29.875	
319.821840280000	134.550	65.302	35.503	29.798	
319.828784720000	135.180	65.547	35.827	29.720	
319.835729170000	135.108	65.035	35.625	29.410	
319.842673610000	134.738	65.282	35.903	29.378	
319.849618060000	134.808	65.280	35.525	29.755	
319.856562500000	135.030	64.810	35.457	29.353	
319.863506940000	135.055	65.062	36.028	29.033	
319.870451390000	135.898	64.980	35.650	29.330	
319.877395830000	90.087	43.065	23.697	19.368	
319.884340280000	135.727	65.462	35.692	29.770	
319.891284720000	134.562	65.693	36.015	29.678	
319.898229170000	135.130	65.347	35.620	29.727	
319.905173610000	135.720	66.245	35.952	30.293	
319.912118060000	135.328	65.268	35.602	29.667	
319.919062500000	136.460	65.498	35.958	29.540	
319.926006940000	135.922	64.703	35.542	29.162	
319.932951390000	135.927	65.293	35.652	29.642	
319.939895830000	135.155	64.988	35.795	29.193	
319.946840280000	135.507	65.357	35.732	29.625	
319.953784720000	135.598	65.938	36.220	29.718	
319.960729170000	136.072	65.648	35.838	29.810	
319.967673610000	135.618	65.315	35.955	29.360	
319.974618060000	135.838	65.318	35.893	29.425	
319.981562500000	135.740	65.375	35.545	29.830	
319.988506940000	134.518	65.140	35.407	29.733	
319.995451390000	134.062	64.990	35.587	29.403	
320.002395830000	88.765	43.208	23.672	19.537	
320.009340280000	135.187	65.592	35.815	29.777	
320.016284720000	135.242	65.673	35.793	29.880	
320.023229170000	136.148	66.168	36.445	29.723	
320.030173610000	135.573	65.230	35.575	29.655	
320.037118060000	134.267	65.397	35.840	29.557	
320.044062500000	134.128	65.492	35.912	29.580	
320.051006940000	135.603	66.475	36.267	30.208	
320.057951390000	135.123	65.482	35.578	29.903	
320.064895830000	134.590	65.453	35.923	29.530	
320.071840280000	134.667	66.237	36.032	30.205	
320.078784720000	135.023	66.090	35.945	30.145	
320.085729170000	134.835	66.172	36.048	30.123	
320.092673610000	134.127	65.630	35.852	29.778	
320.099618060000	134.155	66.532	36.145	30.387	
320.106562500000	134.088	66.642	36.070	30.572	
320.113506940000	134.385	66.803	36.520	30.283	
320.120451390000	133.955	66.200	36.065	30.135	
320.127395830000	88.732	43.667	23.757	19.910	
320.134340280000	135.185	66.630	36.475	30.155	
320.141284720000	135.430	66.598	36.115	30.483	
320.148229170000	134.255	66.437	36.260	30.177	
320.155173610000	135.010	66.285	36.200	30.085	
320.162118060000	134.950	66.777	36.388	30.388	
320.169062500000	134.840	66.543	36.027	30.517	
320.176006940000	134.525	66.538	36.223	30.315	
320.182951390000	134.905	67.100	36.373	30.727	
320.189895830000	134.482	66.733	36.290	30.443	
320.196840280000	134.837	67.285	36.465	30.820	
320.203784720000	134.082	66.367	36.172	30.195	
320.210729170000	134.618	66.388	36.200	30.188	
320.217673610000	133.572	66.722	36.308	30.413	
320.224618060000	134.550	66.682	36.367	30.315	
320.231562500000	134.670	66.708	36.467	30.242	
320.238506940000	135.170	66.752	36.263	30.488	
320.245451390000	135.182	66.475	36.132	30.343	
320.252395830000	89.842	44.313	23.960	20.353	
320.259340280000	134.518	66.772	36.383	30.388	
320.266284720000	134.818	66.843	36.285	30.558	
320.273229170000	134.857	66.762	36.432	30.330	
320.280173610000	134.172	67.090	36.223	30.867	
320.287118060000	134.258	66.172	36.178	29.993	
320.294062500000	133.978	66.683	36.393	30.290	
320.301006940000	134.483	67.362	36.267	31.095	
320.307951390000	134.417	66.933	36.395	30.538	
320.314895830000	134.347	66.722	36.007	30.715	
320.321840280000	135.648	65.855	35.585	30.270	
320.328784720000	134.897	67.147	36.453	30.693	
320.335729170000	134.753	67.197	36.247	30.950	
320.342673610000	135.142	66.597	36.155	30.442	
320.349618060000	134.982	67.628	36.862	30.767	
320.356562500000	135.828	67.453	36.720	30.733	
320.363506940000	134.517	66.882	36.348	30.533	
320.370451390000	135.370	66.730	36.393	30.337	
320.377395830000	89.778	44.773	24.555	20.218	
320.384340280000	134.330	66.503	36.352	30.152	
320.391284720000	134.790	66.777	36.338	30.438	
320.398229170000	134.940	67.063	36.247	30.817	
320.405173610000	135.942	67.140	36.552	30.588	
320.412118060000	134.647	66.523	36.435	30.088	
320.419062500000	134.520	65.947	35.958	29.988	
320.426006940000	135.275	65.933	35.737	30.197	
320.432951390000	135.075	66.805	36.098	30.707	
320.439895830000	134.867	67.150	36.657	30.493	
320.446840280000	134.812	67.145	36.532	30.613	
320.453784720000	135.775	66.993	36.503	30.490	
320.460729170000	134.692	65.968	35.807	30.162	
320.467673610000	135.328	67.010	36.498	30.512	
320.474618060000	135.060	66.932	36.502	30.430	
320.481562500000	134.873	66.612	36.450	30.162	
320.488506940000	134.142	66.915	36.347	30.568	
320.495451390000	133.748	66.193	35.963	30.230	
320.502418980000	88.663	43.894	23.681	20.213	
320.509363430000	134.338	67.020	36.423	30.597	
320.516307870000	134.167	67.337	36.662	30.675	
320.523252310000	134.803	67.548	36.895	30.653	
320.530196760000	133.000	67.205	36.387	30.818	
320.537141200000	134.417	68.037	36.793	31.243	
320.544085650000	133.553	67.355	36.170	31.185	
320.551030090000	134.862	67.195	36.527	30.668	
320.557974540000	134.420	67.243	36.262	30.982	
320.564918980000	133.782	67.350	36.610	30.740	
320.571863430000	133.220	67.377	36.313	31.063	
320.578807870000	134.142	67.672	36.577	31.095	
320.585752310000	134.365	67.413	36.242	31.172	
320.592696760000	134.093	66.928	36.370	30.558	
320.599641200000	133.777	66.587	35.890	30.697	
320.606585650000	133.513	66.913	36.555	30.358	
320.613530090000	133.418	67.435	36.383	31.052	
320.620474540000	134.863	67.512	36.482	31.030	
320.627418980000	88.523	44.763	24.427	20.337	
320.634363430000	134.618	67.053	36.475	30.578	
320.641307870000	133.803	67.643	36.588	31.055	
320.648252310000	133.537	68.050	36.943	31.107	
320.655196760000	134.617	67.562	36.840	30.722	
320.662141200000	135.143	67.472	36.827	30.645	
320.669085650000	135.248	67.270	36.638	30.632	
320.676030090000	134.808	66.753	36.128	30.625	
320.682974540000	133.723	67.227	36.545	30.682	
320.689918980000	134.142	67.702	36.930	30.772	
320.696863430000	134.807	66.945	36.360	30.585	
320.703807870000	133.630	67.327	36.662	30.665	
320.710752310000	134.165	67.895	36.980	30.915	
320.717696760000	134.607	67.405	36.637	30.768	
320.724641200000	135.025	68.303	36.862	31.442	
320.731585650000	133.643	67.730	36.755	30.975	
320.738530090000	133.895	68.138	36.753	31.385	
320.745474540000	133.622	67.205	36.673	30.532	
320.752418980000	88.640	44.017	23.735	20.282	
320.759363430000	133.555	67.695	36.720	30.975	
320.766307870000	134.900	67.207	36.452	30.755	
320.773252310000	135.147	67.288	36.482	30.807	
320.780196760000	133.752	67.398	36.380	31.018	
320.787141200000	134.843	67.628	36.707	30.922	
320.794085650000	134.342	67.617	36.917	30.700	
320.801030090000	133.183	67.687	36.513	31.173	
320.807974540000	134.685	67.923	36.887	31.037	
320.814918980000	134.158	66.873	36.402	30.472	
320.821863430000	134.277	66.877	35.995	30.882	
320.828807870000	135.412	67.365	36.307	31.058	
320.835752310000	135.327	67.567	36.585	30.982	
320.842696760000	134.163	67.338	36.712	30.627	
320.849641200000	133.558	68.347	36.558	31.788	
320.856585650000	132.617	68.185	36.605	31.580	
320.863530090000	133.505	68.282	36.772	31.510	
320.870474540000	133.057	67.890	36.817	31.073	
320.877418980000	87.535	44.388	23.863	20.525	
320.884363430000	133.815	68.145	36.977	31.168	
320.891307870000	132.723	68.503	36.885	31.618	
320.898252310000	132.068	68.608	37.033	31.575	
320.905196760000	131.417	68.490	37.048	31.442	
320.912141200000	132.333	68.007	36.620	31.387	
320.919085650000	133.418	68.200	36.650	31.550	
320.926030090000	132.035	68.518	36.552	31.967	
320.932974540000	132.150	68.277	36.407	31.870	
320.939918980000	132.232	68.483	37.168	31.315	
320.946863430000	132.040	68.532	36.920	31.612	
320.953807870000	132.083	68.153	36.690	31.463	
320.960752310000	133.292	68.550	36.940	31.610	
320.967696760000	133.390	68.752	37.040	31.712	
320.974641200000	131.405	68.600	37.037	31.563	
320.981585650000	131.472	68.183	36.558	31.625	
320.988530090000	133.620	68.275	36.598	31.677	
320.995474540000	133.695	68.730	37.217	31.513	
321.002418980000	86.852	44.692	24.000	20.692	
321.009363430000	133.500	68.495	36.882	31.613	
321.016307870000	131.842	67.832	36.455	31.377	
321.023252310000	132.523	68.605	36.873	31.732	
321.030196760000	133.405	68.340	36.917	31.423	
321.037141200000	132.495	68.000	36.625	31.375	
321.044085650000	132.795	68.780	36.910	31.870	
321.051030090000	132.555	67.908	36.705	31.203	
321.057974540000	132.857	68.263	36.750	31.513	
321.064918980000	132.638	68.578	36.880	31.698	
321.071863430000	133.150	68.272	36.900	31.372	
321.078807870000	131.247	67.932	36.555	31.377	
321.085752310000	132.192	68.327	36.872	31.455	
321.092696760000	131.693	67.595	36.548	31.047	
321.099641200000	132.053	68.392	36.945	31.447	
321.106585650000	132.357	68.755	37.155	31.600	
321.113530090000	131.767	67.488	36.115	31.373	
321.120474540000	132.723	68.278	36.827	31.452	
321.127418980000	87.648	44.800	24.178	20.622	
321.134363430000	131.988	67.373	36.292	31.082	
321.141307870000	132.245	67.990	36.540	31.450	
321.148252310000	132.418	68.842	37.158	31.683	
321.155196760000	132.558	67.868	36.642	31.227	
321.162141200000	132.600	68.507	36.878	31.628	
321.169085650000	132.677	68.047	36.972	31.075	
321.176030090000	131.282	68.365	36.793	31.572	
321.182974540000	132.010	68.003	36.682	31.322	
321.189918980000	132.648	68.115	36.743	31.372	
321.196863430000	133.420	68.453	36.887	31.567	
321.203807870000	132.343	67.850	36.582	31.268	
321.210752310000	132.403	67.858	36.582	31.277	
321.217696760000	132.407	68.103	36.562	31.542	
321.224641200000	132.097	67.745	36.635	31.110	
321.231585650000	131.982	67.495	36.527	30.968	
321.238530090000	132.510	67.900	36.837	31.063	
321.245474540000	131.938	67.430	36.395	31.035	
321.252418980000	87.533	44.792	24.135	20.657	
321.259363430000	132.450	67.900	36.465	31.435	
321.266307870000	132.835	66.958	36.012	30.947	
321.273252310000	133.223	67.585	36.465	31.120	
321.280196760000	132.317	68.112	36.852	31.260	
321.287141200000	133.010	67.587	36.760	30.827	
321.294085650000	132.712	66.945	36.377	30.568	
321.301030090000	133.378	67.325	36.255	31.070	
321.307974540000	133.538	66.837	36.098	30.738	
321.314918980000	132.625	67.147	36.415	30.732	
321.321863430000	134.115	67.935	36.862	31.073	
321.328807870000	132.967	67.340	36.277	31.063	
321.335752310000	132.677	67.118	36.230	30.888	
321.342696760000	131.938	67.017	36.332	30.685	
321.349641200000	133.007	67.603	36.948	30.655	
321.356585650000	132.893	67.797	36.753	31.043	
321.363530090000	132.890	67.907	36.863	31.043	
321.370474540000	132.037	66.860	36.162	30.698	
321.377418980000	88.005	44.748	24.302	20.447	
321.384363430000	132.862	67.468	36.557	30.912	
321.391307870000	131.642	66.808	36.183	30.625	
321.398252310000	131.952	66.572	36.253	30.318	
321.405196760000	133.125	66.918	36.415	30.503	
321.412141200000	132.398	66.455	36.283	30.172	
321.419085650000	132.270	66.442	36.117	30.325	
321.426030090000	133.603	66.937	36.342	30.595	
321.432974540000	132.272	65.910	35.832	30.078	
321.439918980000	132.350	66.522	36.083	30.438	
321.446863430000	133.347	66.802	36.307	30.495	
321.453807870000	132.012	66.175	35.738	30.437	
321.460752310000	132.317	65.972	35.747	30.225	
321.467696760000	132.295	66.497	35.787	30.710	
321.474641200000	131.830	66.958	35.888	31.070	
321.481585650000	131.398	66.983	35.720	31.263	
321.488530090000	132.748	66.740	36.272	30.468	
321.495474540000	131.892	66.633	36.073	30.560	
321.502418980000	86.195	43.280	23.643	19.637	
321.509363430000	132.625	66.140	35.793	30.347	
321.516307870000	132.818	66.505	36.163	30.342	
321.523252310000	132.998	66.975	36.473	30.502	
321.530196760000	132.505	66.458	35.905	30.553	
321.537141200000	130.672	66.153	35.618	30.535	
321.544085650000	131.265	66.483	36.200	30.283	
321.551030090000	132.347	66.382	36.055	30.327	
321.557974540000	132.553	66.362	36.002	30.360	
321.564918980000	132.997	66.280	35.933	30.347	
321.571863430000	131.970	66.272	35.622	30.650	
321.578807870000	132.183	66.128	35.843	30.285	
321.585752310000	133.172	67.237	36.345	30.892	
321.592696760000	132.350	66.193	35.615	30.578	
321.599641200000	131.933	65.953	35.502	30.452	
321.606585650000	131.847	66.013	35.663	30.350	
321.613530090000	131.880	66.195	35.865	30.330	
321.620474540000	132.123	66.038	35.702	30.337	
321.627418980000	86.137	43.305	23.430	19.875	
321.634363430000	132.188	65.758	35.778	29.980	
321.641307870000	131.660	66.352	36.072	30.280	
321.648252310000	131.185	65.928	35.715	30.213	
321.655196760000	131.373	66.555	35.873	30.682	
321.662141200000	131.555	66.062	35.722	30.340	
321.669085650000	132.082	66.258	35.885	30.373	
321.676030090000	131.743	66.107	35.783	30.323	
321.682974540000	130.807	66.292	35.620	30.672	
321.689918980000	131.040	66.185	35.783	30.402	
321.696863430000	131.925	66.135	36.028	30.107	
321.703807870000	131.188	66.552	35.925	30.627	
321.710752310000	131.080	65.797	35.915	29.882	
321.717696760000	131.035	65.225	35.392	29.833	
321.724641200000	131.392	65.277	35.550	29.727	
321.731585650000	130.715	65.448	35.290	30.158	
321.738530090000	129.895	66.287	35.657	30.630	
321.745474540000	131.080	66.253	35.697	30.557	
321.752418980000	85.213	43.185	23.237	19.948	
321.759363430000	131.072	65.550	35.378	30.172	
321.766307870000	132.150	65.830	35.580	30.250	
321.773252310000	131.327	65.283	35.698	29.585	
321.780196760000	131.343	65.678	35.572	30.107	
321.787141200000	131.777	66.017	35.790	30.227	
321.794085650000	130.773	65.375	35.725	29.650	
321.801030090000	131.485	64.712	34.872	29.840	
321.807974540000	131.093	65.447	35.155	30.292	
321.814918980000	130.978	65.663	35.827	29.837	
321.821863430000	131.600	64.987	35.662	29.325	
321.828807870000	131.897	64.937	35.363	29.573	
321.835752310000	131.062	64.745	35.172	29.573	
321.842696760000	131.280	65.105	35.348	29.757	
321.849641200000	131.560	65.140	35.173	29.967	
321.856585650000	131.785	65.293	35.652	29.642	
321.863530090000	131.567	64.932	35.473	29.458	
321.870474540000	131.942	65.240	35.493	29.747	
321.877418980000	86.003	42.577	23.170	19.407	
321.884363430000	132.803	65.523	35.867	29.657	
321.891307870000	130.412	64.793	35.212	29.582	
321.898252310000	131.047	65.408	35.315	30.093	
321.905196760000	130.228	64.647	35.080	29.567	
321.912141200000	131.025	64.968	35.150	29.818	
321.919085650000	130.472	64.998	35.237	29.762	
321.926030090000	131.728	64.832	35.137	29.695	
321.932974540000	131.208	65.095	35.732	29.363	
321.939918980000	131.532	65.150	35.332	29.818	
321.946863430000	131.927	64.462	35.082	29.380	
